File: data/2__Potentiostatic EIS 20200901 132823.csv
"Step number","Step name","Elapsed Time  (s)","DC Working Electrode (V)","DC Current (mA)","Frequency (Hz)","|Z| (Ohms)","Phase (deg)","Z' (Ohms)","-Z"" (Ohms)","THD (%)","Amplitude (mV/mA)","No of Cycles","Duration of Each Frequency (s)"
1_1,Potentiostatic EIS,1.7923,-0.000257327,0.00242333,995000,98.5054,0.889504,98.4936,-1.52921,17.9267,7.30614,304,0.000305528
1_1,Potentiostatic EIS,3.08994,-0.00036827,0.000906586,635000,100.002,1.37869,99.973,-2.40608,1.34733,9.58414,196,0.000308661
1_1,Potentiostatic EIS,3.50568,-0.000405664,0.000985808,398107,99.4563,0.416195,99.4537,-0.722442,0.559816,10.3743,228,0.00057271
1_1,Potentiostatic EIS,3.90523,-0.000364284,0.000299591,251189,99.8972,-0.0978961,99.8971,0.170685,0.222353,10.2758,199,0.000792233
1_1,Potentiostatic EIS,4.08481,-0.000283355,0.000278925,158489,99.9382,-0.520924,99.934,0.908609,0.21819,10.126,195,0.00123037
1_1,Potentiostatic EIS,4.33828,-0.000374607,0.000271822,99999.9,99.9781,-0.821325,99.9678,1.43312,0.224701,10.1022,203,0.00203
1_1,Potentiostatic EIS,4.71871,-0.000406095,0.000272775,63095.7,100.046,-1.36939,100.017,2.39091,0.229502,10.2109,207,0.00328073
1_1,Potentiostatic EIS,5.3006,-0.000401855,0.000283955,39810.7,100.141,-2.2485,100.064,3.92888,0.235755,10.5969,203,0.00509913
1_1,Potentiostatic EIS,7.71263,-0.000311718,-2.32774e-05,25118.8,100.3,-3.64726,100.0964,6.38043,0.423458,8.09849,204,0.00812141
1_1,Potentiostatic EIS,9.80122,-0.000358157,0.000256589,15848.875,100.6,-5.71642,100.099,10.0202,0.238418,10.8837,204,0.0128716
1_1,Potentiostatic EIS,13.0328,-0.000294865,-0.000190453,9999.98,101.275,-9.04593,100.016,15.9231,0.0820556,7.91856,205,0.0205
1_1,Potentiostatic EIS,16.1088,-0.000267519,-0.000174074,6309.57,103.227,-14.1877,100.078,25.3008,0.0918729,10.9728,133,0.0210791
1_1,Potentiostatic EIS,20.448,-0.000227653,-0.00017276,3981.05,107.987,-21.8961,100.197,40.2709,0.0592334,10.8511,81,0.0203464
1_1,Potentiostatic EIS,25.9828,-0.000214229,-0.000170986,2511.88,119.088,-32.437,100.508,63.8753,0.127144,10.9479,50,0.0199054
1_1,Potentiostatic EIS,26.6252,-0.000203297,-0.000168373,1584.89,143.24,-45.0563,101.186,101.385,0.0959319,11.997,649,0.409492
1_1,Potentiostatic EIS,27.1726,-0.000210251,-1.82679e-05,999.996,190.842,-57.3789,102.879,160.737,0.064126,10.0207,409,0.409002
1_1,Potentiostatic EIS,27.6468,-0.000208902,-1.80016e-05,630.956,276.374,-67.253,106.864,254.878,0.102773,9.80208,257,0.407318
1_1,Potentiostatic EIS,28.1771,-0.000217293,-3.24507e-05,398.105,420.116,-73.8741,116.687,403.586,0.128047,9.53869,162,0.406927
1_1,Potentiostatic EIS,28.8349,-0.000204136,-3.36454e-05,251.188,653.715,-77.4779,141.736,638.165,0.218157,9.43308,101,0.402089
1_1,Potentiostatic EIS,29.3136,-0.000204553,-3.3874e-05,158.489,1025.46,-78.581,203.024,1005.16,0.232971,9.37249,64,0.403813
1_1,Potentiostatic EIS,29.7962,-0.00020735,-3.38315e-05,99.9993,1608.11,-77.2912,353.778,1568.71,0.266155,9.34944,40,0.400003
1_1,Potentiostatic EIS,30.4046,-0.000206746,2.82339e-06,63.0956,2498.43,-73.4355,712.29,2394.74,0.540306,9.34183,25,0.396224
1_1,Potentiostatic EIS,30.9605,-0.0002111,3.71919e-06,39.8106,3786.55,-66.5621,1506.11,3474.13,0.168653,8.63517,16,0.401903
1_1,Potentiostatic EIS,31.4809,-0.000194478,4.67733e-06,25.1188,5446.42,-56.4338,3011.33,4538.21,0.132204,9.50603,10,0.398108
1_1,Potentiostatic EIS,34.1157,-0.000195676,-2.75079e-05,15.8489,7198.41,-43.9774,5180.07,4998.39,0.254575,9.11634,6,0.378576
1_1,Potentiostatic EIS,34.7584,-0.000201599,-2.71012e-05,9.99998,8580.06,-31.4816,7317.15,4480.72,0.297343,9.23701,4,0.400001
1_1,Potentiostatic EIS,35.4347,-0.000201164,-2.75755e-05,6.30953,9405.01,-21.1753,8769.98,3397.3,0.220711,9.29518,2,0.316981
1_1,Potentiostatic EIS,36.2302,-0.000208194,-2.84548e-05,3.98106,9809.34,-13.7353,9528.82,2329.1,0.205323,9.3172,2,0.502378
1_1,Potentiostatic EIS,37.4668,-0.000199405,-2.74788e-05,2.51188,9978.37,-8.76423,9861.86,1520.39,0.117455,9.32053,2,0.796217
1_1,Potentiostatic EIS,39.4014,-0.00020646,-2.78768e-05,1.58489,10053.2,-5.55709,10006,973.531,0.0986176,9.3303,2,1.26192
1_1,Potentiostatic EIS,41.4168,-0.000204405,-2.78199e-05,0.999995,10076.3,-3.50433,10057.5,615.905,0.0844625,9.32871,2,2.00001