File: data/4__Potentiostatic EIS 20200901 132931.csv
"Step number","Step name","Elapsed Time  (s)","DC Working Electrode (V)","DC Current (mA)","Frequency (Hz)","|Z| (Ohms)","Phase (deg)","Z' (Ohms)","-Z"" (Ohms)","THD (%)","Amplitude (mV/mA)","No of Cycles","Duration of Each Frequency (s)"
1_2,Potentiostatic EIS,69.525,-0.000244289,0.00246747,995000,98.7039,0.960736,98.69,-1.65499,13.4862,7.32704,304,0.000305528
1_2,Potentiostatic EIS,71.1645,-0.00030108,0.000954737,635000,99.0316,0.18131,99.0311,-0.313381,0.511665,9.43428,196,0.000308661
1_2,Potentiostatic EIS,71.991,-0.000287119,0.000926367,398107,99.4282,-0.086508,99.4281,0.150121,1.44825,10.4218,228,0.00057271
1_2,Potentiostatic EIS,72.8353,-0.000268878,0.000953615,251189,99.6496,-0.143343,99.6493,0.249305,0.257948,9.97088,199,0.000792233
1_2,Potentiostatic EIS,73.7698,-0.000356077,0.000946626,158489,99.7807,-0.490084,99.777,0.853472,0.614337,9.84604,195,0.00123037
1_2,Potentiostatic EIS,74.3201,-0.000344932,0.000256206,99999.9,99.974,-0.867863,99.9625,1.51425,0.229568,10.0748,203,0.00203
1_2,Potentiostatic EIS,74.7003,-0.000376108,0.000269745,63095.7,100.01,-1.37901,99.981,2.40683,0.217535,10.3476,207,0.00328073
1_2,Potentiostatic EIS,75.282,-0.000341036,0.000262237,39810.7,100.075,-2.24017,99.9985,3.91176,0.287024,10.7146,203,0.00509913
1_2,Potentiostatic EIS,77.1372,-0.000371686,-6.41007e-06,25118.8,99.947,-3.67918,99.741,6.41357,0.128015,8.14698,204,0.00812141
1_2,Potentiostatic EIS,78.8926,-0.000397599,0.000253524,15848.875,100.453,-5.79675,99.9392,10.1457,0.206131,10.9066,204,0.0128716
1_2,Potentiostatic EIS,82.1609,-0.00127743,0.000165151,9999.98,101.247,-9.05477,99.9848,15.934,0.0839293,7.92576,205,0.0205
1_2,Potentiostatic EIS,85.253,0.000482873,0.000188063,6309.57,103.198,-14.1876,100.05,25.2935,0.12573,10.9833,133,0.0210791
1_2,Potentiostatic EIS,89.5933,0.000517754,0.000192285,3981.05,107.963,-21.8933,100.177,40.2573,0.0947339,10.861,81,0.0203464
1_2,Potentiostatic EIS,95.128,0.000534884,0.000191317,2511.88,119.02,-32.4426,100.444,63.8487,0.174543,10.9506,50,0.0199054
1_2,Potentiostatic EIS,95.7708,0.000532685,0.000190639,1584.89,143.199,-45.0617,101.148,101.366,0.326146,11.993,649,0.409492
1_2,Potentiostatic EIS,96.3279,0.000535163,-2.25154e-05,999.996,190.818,-57.3761,102.874,160.713,0.107445,10.0175,409,0.409002
1_2,Potentiostatic EIS,96.8023,0.000528653,-2.22309e-05,630.956,276.231,-67.2564,106.793,254.752,0.146579,9.79629,257,0.407318
1_2,Potentiostatic EIS,97.3321,0.000533119,-1.10214e-05,398.105,420.006,-73.8749,116.651,403.482,0.106082,9.53519,162,0.406927
1_2,Potentiostatic EIS,97.9858,0.000533553,-2.75045e-05,251.188,653.437,-77.4809,141.642,637.901,0.229784,9.43044,101,0.402089
1_2,Potentiostatic EIS,98.4642,0.000527885,-2.69362e-05,158.489,1025.18,-78.577,203.038,1004.87,0.216361,9.36925,64,0.403813
1_2,Potentiostatic EIS,98.9474,0.000532974,-2.69824e-05,99.9993,1607.5,-77.2978,353.461,1568.15,0.279624,9.3435,40,0.400003
1_2,Potentiostatic EIS,99.5134,0.000530327,-1.52487e-05,63.0956,2497.43,-73.4308,712.201,2393.73,0.589753,9.33448,25,0.396224
1_2,Potentiostatic EIS,100.073,0.000524231,-1.53318e-05,39.8106,3785.41,-66.5576,1505.94,3472.96,0.141985,8.63152,16,0.401903
1_2,Potentiostatic EIS,100.594,0.000551111,-1.30738e-05,25.1188,5446.04,-56.4288,3011.51,4537.63,0.116084,9.50328,10,0.398108
1_2,Potentiostatic EIS,101.412,0.000602739,-4.48442e-06,15.8489,7196.98,-43.9577,5180.76,4995.62,0.234996,9.34427,6,0.378576
1_2,Potentiostatic EIS,102.054,0.000597381,-4.87354e-06,9.99998,8578.71,-31.4775,7316.31,4479.49,0.302853,9.46842,4,0.400001
1_2,Potentiostatic EIS,102.731,0.000593444,-5.10217e-06,6.30953,9402.58,-21.1566,8768.82,3393.57,0.219496,9.52392,2,0.316981
1_2,Potentiostatic EIS,103.526,0.000597778,-4.857e-06,3.98106,9801.97,-13.7341,9521.71,2327.15,0.208994,9.54537,2,0.502378
1_2,Potentiostatic EIS,104.762,0.000611257,-4.25654e-06,2.51188,9976.82,-8.76737,9860.24,1520.7,0.114835,9.55543,2,0.796217
1_2,Potentiostatic EIS,106.697,0.000600256,-5.0716e-06,1.58489,10048.5,-5.57481,10000.9,976.162,0.0872456,9.55954,2,1.26192
1_2,Potentiostatic EIS,108.713,0.000602867,-4.69631e-06,0.999995,10081.907,-3.51955,10062.9,618.92,0.0782636,9.56701,2,2.00001