File: data/6__Potentiostatic EIS 20200901 133112.csv
"Step number","Step name","Elapsed Time  (s)","DC Working Electrode (V)","DC Current (mA)","Frequency (Hz)","|Z| (Ohms)","Phase (deg)","Z' (Ohms)","-Z"" (Ohms)","THD (%)","Amplitude (mV/mA)","No of Cycles","Duration of Each Frequency (s)"
1_2,Potentiostatic EIS,169.579,-0.000199186,9.60981e-05,995000,100.34,2.61888,100.235,-4.58476,2.20308,3.92511,304,0.000305528
1_2,Potentiostatic EIS,170.867,-0.000284843,0.00257025,635000,99.5537,0.886147,99.5418,-1.53965,3.56387,6.71716,196,0.000308661
1_2,Potentiostatic EIS,171.83,-0.000347879,3.71033e-06,398107,99.5558,0.33264,99.5541,-0.577984,0.308361,9.58216,228,0.00057271
1_2,Potentiostatic EIS,171.991,-0.000354195,-5.021e-06,251189,99.9857,-0.0988551,99.9855,0.17251,0.265554,9.84944,199,0.000792233
1_2,Potentiostatic EIS,172.175,-0.000351285,1.04267e-05,158489,99.9366,-0.430941,99.9338,0.751649,0.237298,9.80255,195,0.00123037
1_2,Potentiostatic EIS,172.428,-0.000387919,5.3589e-06,99999.9,100.005,-0.856488,99.9937,1.49487,0.199474,9.86958,203,0.00203
1_2,Potentiostatic EIS,172.809,-0.000366498,3.3745e-06,63095.7,100.131,-1.3849,100.102,2.42003,0.151504,10.0551,207,0.00328073
1_2,Potentiostatic EIS,173.391,-0.000392496,-2.94907e-08,39810.7,100.175,-2.24727,100.097,3.92806,0.17207,10.4764,203,0.00509913
1_2,Potentiostatic EIS,175.703,-0.000389698,3.69506e-06,25118.8,100.047,-3.65691,99.8435,6.38119,0.158001,7.99729,204,0.00812141
1_2,Potentiostatic EIS,177.828,-0.000225183,0.000275567,15848.875,100.567,-5.80163,100.052,10.1658,0.322164,10.8846,204,0.0128716
1_2,Potentiostatic EIS,181.087,0.000528853,-0.000227811,9999.98,101.226,-9.04926,99.9657,15.9211,0.0829681,7.87882,205,0.0205
1_2,Potentiostatic EIS,184.164,0.000596123,-0.000204636,6309.57,103.203,-14.1718,100.062,25.2672,0.118736,10.9733,133,0.0210791
1_2,Potentiostatic EIS,188.503,0.000604349,-0.000205852,3981.05,107.951,-21.9047,100.158,40.2725,0.12991,10.9528,81,0.0203464
1_2,Potentiostatic EIS,194.043,0.000302432,-0.000199731,2511.88,119.021,-32.438,100.451,63.8414,0.128438,10.9432,50,0.0199054
1_2,Potentiostatic EIS,194.685,0.000301743,-0.000200062,1584.89,143.218,-45.0589,101.166,101.375,0.215045,11.9952,649,0.409492
1_2,Potentiostatic EIS,195.241,0.000299475,-1.59416e-07,999.996,190.844,-57.3826,102.87,160.746,0.074973,10.0206,409,0.409002
1_2,Potentiostatic EIS,195.715,0.000300957,-8.37997e-07,630.956,276.314,-67.2585,106.816,254.833,0.0888637,9.80071,257,0.407318
1_2,Potentiostatic EIS,196.247,0.000296291,-2.40325e-05,398.105,420.098,-73.8712,116.702,403.563,0.109306,9.5374,162,0.406927
1_2,Potentiostatic EIS,196.9,0.000294644,-2.31643e-05,251.188,653.537,-77.4859,141.608,638.01,0.271575,9.43004,101,0.402089
1_2,Potentiostatic EIS,197.379,0.000286377,-2.45662e-05,158.489,1025.16,-78.5833,202.924,1004.88,0.266901,9.36995,64,0.403813
1_2,Potentiostatic EIS,197.862,0.000285751,-2.39461e-05,99.9993,1607.93,-77.294,353.661,1568.55,0.254283,9.34626,40,0.400003
1_2,Potentiostatic EIS,198.47,0.000290221,1.24459e-05,63.0956,2498.16,-73.4444,711.841,2394.6,0.601429,9.33763,25,0.396224
1_2,Potentiostatic EIS,199.02,0.000291951,1.35846e-05,39.8106,3785.37,-66.5576,1505.93,3472.93,0.158564,8.63365,16,0.401903
1_2,Potentiostatic EIS,199.54,0.000292502,1.41845e-05,25.1188,5447.28,-56.4417,3011.18,4539.35,0.113877,9.5109,10,0.398108
1_2,Potentiostatic EIS,201.548,0.000308283,1.31721e-05,15.8489,7197.48,-43.9799,5179.19,4997.97,0.288265,9.11276,6,0.378576
1_2,Potentiostatic EIS,202.19,0.000296118,1.19598e-05,9.99998,8579.3,-31.4737,7317.12,4479.32,0.308584,9.23593,4,0.400001
1_2,Potentiostatic EIS,202.866,0.000292005,1.18788e-05,6.30953,9403.72,-21.1754,8768.77,3396.86,0.227341,9.29136,2,0.316981
1_2,Potentiostatic EIS,203.662,0.000294214,1.26559e-05,3.98106,9803.11,-13.7663,9521.51,2332.76,0.217879,9.30942,2,0.502378
1_2,Potentiostatic EIS,204.898,0.000294552,1.25362e-05,2.51188,9981.13,-8.77229,9864.37,1522.2,0.101512,9.32098,2,0.796217
1_2,Potentiostatic EIS,206.833,0.000297322,1.28988e-05,1.58489,10053.8,-5.5692,10006.3,975.701,0.0988391,9.3306,2,1.26192
1_2,Potentiostatic EIS,208.848,0.000300102,1.27859e-05,0.999995,10083.3,-3.48752,10064.7,613.381,0.0938869,9.32819,2,2.00001